# 
# 
# Curve Name:
#   !PHBH
# Curve Values:
#        Index           t          Ts          Tr       Value
#                      [s]        [°C]        [°C]         [%]
           0           0     32.1246          25         100
           6           6     33.1247          26     100.067
          12          12     33.9793          27     100.308
          18          18     34.7981          28     100.348
          24          24     35.5863          29      100.36
          30          30      36.366          30     100.367
          36          36     37.1336          31     100.376
          42          42     37.8965          32     100.385
          48          48     38.6716          33     100.391
          54          54     39.4635          34     100.399
          60          60     40.2391          35     100.408
          66          66      41.029          36     100.414
          72          72     41.8255          37      100.42
          78          78     42.6211          38     100.426
          84          84     43.4248          39     100.432
          90          90     44.2314          40     100.439
          96          96     45.0443          41     100.446
         102         102     45.8574          42     100.451
         108         108     46.6791          43     100.455
         114         114     47.5149          44     100.463
         120         120     48.3474          45     100.469
         126         126     49.1815          46     100.472
         132         132     50.0217          47     100.477
         138         138     50.8713          48      100.48
         144         144     51.7236          49     100.486
         150         150     52.5633          50     100.492
         156         156     53.4176          51     100.497
         162         162     54.2713          52     100.501
         168         168     55.1212          53     100.505
         174         174     55.9801          54     100.509
         180         180     56.8384          55     100.514
         186         186     57.7036          56     100.519
         192         192     58.5718          57     100.523
         198         198     59.4432          58     100.526
         204         204       60.31          59      100.53
         210         210     61.1762          60     100.534
         216         216     62.0493          61     100.537
         222         222     62.9432          62     100.541
         228         228     63.8259          63     100.546
         234         234     64.7103          64      100.55
         240         240     65.5877          65     100.553
         246         246       66.47          66     100.556
         252         252     67.3609          67      100.56
         258         258     68.2587          68     100.563
         264         264      69.137          69     100.567
         270         270     70.0317          70      100.57
         276         276     70.9353          71     100.573
         282         282     71.8336          72     100.576
         288         288     72.7368          73      100.58
         294         294     73.6384          74     100.583
         300         300     74.5319          75     100.586
         306         306     75.4438          76      100.59
         312         312     76.3514          77     100.592
         318         318     77.2767          78     100.596
         324         324     78.1692          79       100.6
         330         330     79.1012          80     100.601
         336         336     80.0078          81     100.602
         342         342     80.9102          82     100.607
         348         348      81.826          83     100.609
         354         354     82.7501          84     100.612
         360         360     83.6618          85     100.615
         366         366     84.5701          86     100.617
         372         372     85.4963          87     100.621
         378         378     86.3988          88     100.622
         384         384     87.3096          89     100.624
         390         390     88.2304          90     100.627
         396         396     89.1551          91      100.63
         402         402     90.0497          92     100.632
         408         408     90.9745          93     100.635
         414         414     91.8744          94     100.636
         420         420     92.8004          95     100.639
         426         426     93.7259          96     100.641
         432         432     94.6506          97     100.644
         438         438     95.5693          98     100.645
         444         444      96.512          99     100.647
         450         450     97.4616         100     100.649
         456         456     98.3766         101     100.653
         462         462     99.3042         102     100.658
         468         468     100.246         103     100.659
         474         474     101.193         104      100.66
         480         480     102.132         105     100.661
         486         486     103.072         106     100.665
         492         492     103.996         107     100.669
         498         498     104.939         108      100.67
         504         504     105.876         109     100.671
         510         510     106.819         110     100.676
         516         516     107.754         111     100.674
         522         522     108.713         112     100.675
         528         528      109.65         113     100.677
         534         534     110.572         114     100.679
         540         540      111.51         115     100.681
         546         546     112.454         116     100.678
         552         552     113.394         117     100.681
         558         558     114.325         118     100.687
         564         564     115.262         119     100.688
         570         570     116.197         120     100.688
         576         576      117.15         121     100.691
         582         582     118.098         122     100.691
         588         588     119.031         123     100.691
         594         594     119.986         124     100.692
         600         600     120.938         125     100.692
         606         606     121.897         126     100.694
         612         612     122.859         127     100.694
         618         618     123.827         128     100.693
         624         624     124.771         129     100.693
         630         630     125.741         130     100.695
         636         636     126.703         131     100.695
         642         642     127.654         132     100.697
         648         648     128.602         133     100.697
         654         654     129.551         134     100.698
         660         660     130.498         135     100.694
         666         666     131.451         136     100.697
         672         672     132.406         137     100.699
         678         678     133.372         138     100.698
         684         684     134.337         139     100.699
         690         690     135.304         140     100.701
         696         696     136.306         141       100.7
         702         702     137.301         142     100.697
         708         708     138.303         143     100.698
         714         714     139.307         144     100.701
         720         720     140.323         145     100.703
         726         726     141.315         146     100.703
         732         732     142.307         147     100.704
         738         738     143.305         148     100.705
         744         744     144.303         149     100.705
         750         750     145.299         150     100.705
         756         756     146.295         151     100.707
         762         762     147.303         152     100.708
         768         768      148.29         153     100.708
         774         774     149.289         154      100.71
         780         780     150.282         155      100.71
         786         786     151.256         156     100.711
         792         792     152.254         157     100.712
         798         798     153.246         158     100.714
         804         804     154.228         159     100.713
         810         810     155.233         160     100.714
         816         816     156.226         161     100.717
         822         822      157.22         162     100.719
         828         828     158.205         163     100.719
         834         834       159.2         164     100.721
         840         840     160.206         165     100.721
         846         846     161.186         166     100.723
         852         852     162.181         167     100.725
         858         858     163.155         168     100.725
         864         864     164.148         169     100.726
         870         870     165.142         170     100.727
         876         876     166.134         171     100.729
         882         882     167.132         172      100.73
         888         888     168.125         173     100.732
         894         894     169.102         174     100.735
         900         900     170.117         175     100.736
         906         906     171.105         176     100.737
         912         912      172.11         177     100.739
         918         918       173.1         178     100.741
         924         924     174.096         179     100.743
         930         930     175.083         180     100.743
         936         936     176.082         181     100.743
         942         942     177.075         182     100.746
         948         948     178.068         183     100.749
         954         954     179.075         184     100.749
         960         960     180.062         185      100.75
         966         966     181.053         186     100.751
         972         972     182.045         187     100.754
         978         978     183.044         188     100.753
         984         984     184.038         189     100.755
         990         990     185.039         190     100.759
         996         996     186.029         191      100.76
        1002        1002     187.027         192     100.758
        1008        1008      188.03         193     100.762
        1014        1014     189.019         194     100.766
        1020        1020     190.041         195     100.766
        1026        1026     191.044         196     100.767
        1032        1032      192.03         197     100.768
        1038        1038     193.027         198      100.77
        1044        1044      194.03         199     100.767
        1050        1050     195.032         200     100.769
        1056        1056     196.028         201     100.771
        1062        1062     197.022         202     100.775
        1068        1068      198.02         203     100.777
        1074        1074     199.024         204     100.778
        1080        1080     200.031         205     100.779
        1086        1086      201.02         206      100.78
        1092        1092     202.034         207     100.778
        1098        1098      203.04         208      100.78
        1104        1104     204.031         209     100.781
        1110        1110     205.049         210     100.783
        1116        1116     206.044         211     100.783
        1122        1122     207.047         212     100.784
        1128        1128     208.061         213     100.785
        1134        1134     209.054         214     100.786
        1140        1140     210.054         215     100.787
        1146        1146     211.063         216     100.787
        1152        1152     212.065         217     100.787
        1158        1158     213.062         218     100.789
        1164        1164     214.062         219     100.791
        1170        1170      215.08         220     100.791
        1176        1176      216.08         221     100.792
        1182        1182     217.094         222     100.791
        1188        1188      218.09         223     100.792
        1194        1194     219.103         224     100.791
        1200        1200     220.113         225     100.794
        1206        1206     221.128         226     100.794
        1212        1212     222.133         227     100.794
        1218        1218     223.145         228     100.793
        1224        1224     224.157         229     100.793
        1230        1230     225.164         230     100.793
        1236        1236     226.174         231     100.792
        1242        1242     227.188         232     100.791
        1248        1248     228.197         233     100.791
        1254        1254     229.199         234      100.79
        1260        1260     230.224         235      100.79
        1266        1266     231.232         236     100.786
        1272        1272     232.245         237     100.785
        1278        1278     233.261         238     100.782
        1284        1284     234.265         239      100.78
        1290        1290     235.284         240     100.775
        1296        1296     236.299         241     100.774
        1302        1302     237.303         242     100.771
        1308        1308     238.307         243     100.764
        1314        1314     239.319         244     100.759
        1320        1320     240.326         245     100.753
        1326        1326     241.332         246     100.745
        1332        1332     242.349         247     100.735
        1338        1338     243.341         248     100.726
        1344        1344     244.351         249     100.714
        1350        1350     245.355         250     100.701
        1356        1356      246.36         251     100.686
        1362        1362     247.363         252     100.667
        1368        1368     248.365         253     100.649
        1374        1374     249.379         254     100.626
        1380        1380     250.374         255     100.601
        1386        1386     251.384         256     100.571
        1392        1392      252.38         257     100.534
        1398        1398     253.381         258     100.495
        1404        1404     254.388         259     100.448
        1410        1410     255.376         260     100.393
        1416        1416     256.369         261     100.327
        1422        1422     257.367         262     100.249
        1428        1428     258.355         263     100.158
        1434        1434     259.328         264     100.047
        1440        1440     260.312         265     99.9183
        1446        1446     261.287         266     99.7675
        1452        1452     262.258         267      99.587
        1458        1458     263.211         268     99.3679
        1464        1464     264.159         269     99.0965
        1470        1470     265.096         270     98.7485
        1476        1476     265.994         271     98.3183
        1482        1482     266.867         272     97.7572
        1488        1488     267.709         273     97.0464
        1494        1494     268.522         274     96.1157
        1500        1500     269.353         275     94.9953
        1506        1506     270.123         276     93.7361
        1512        1512     270.884         277      92.126
        1518        1518      271.66         278     90.3324
        1524        1524     272.385         279      88.397
        1530        1530     273.114         280     86.0938
        1536        1536     273.885         281     83.6008
        1542        1542     274.688         282     81.1633
        1548        1548     275.453         283     78.5726
        1554        1554     276.115         284     75.7302
        1560        1560     276.772         285     72.3769
        1566        1566     277.502         286     68.8218
        1572        1572     278.207         287     65.2743
        1578        1578     278.943         288     61.5549
        1584        1584     279.656         289     57.5563
        1590        1590     280.344         290     53.2787
        1596        1596     281.007         291     48.5742
        1602        1602     281.737         292     43.7218
        1608        1608      282.48         293     38.7742
        1614        1614     283.195         294     33.6322
        1620        1620     284.058         295      28.352
        1626        1626     284.839         296     23.0608
        1632        1632     285.748         297      17.594
        1638        1638     286.749         298     12.3142
        1644        1644     288.076         299     7.30109
        1650        1650     290.013         300     3.51851
        1656        1656     292.053         301      2.1059
        1662        1662      293.88         302     1.93518
        1668        1668      295.55         303     1.89546
        1674        1674     297.123         304     1.87472
        1680        1680     298.605         305     1.86098
        1686        1686     300.019         306     1.85107
        1692        1692     301.381         307     1.84611
        1698        1698     302.687         308     1.84173
        1704        1704     303.954         309      1.8337
        1710        1710     305.186         310      1.8312
        1716        1716     306.377         311     1.82621
        1722        1722     307.552         312     1.82225
        1728        1728     308.712         313     1.81705
        1734        1734     309.858         314     1.81236
        1740        1740     310.989         315      1.8088
        1746        1746     312.092         316     1.80673
        1752        1752     313.199         317     1.80148
        1758        1758     314.285         318     1.79921
        1764        1764     315.377         319     1.79526
        1770        1770     316.447         320     1.79206
        1776        1776     317.518         321     1.78797
        1782        1782     318.566         322     1.78494
        1788        1788      319.64         323     1.78111
        1794        1794     320.692         324     1.77672
        1800        1800     321.736         325     1.77424
        1806        1806      322.78         326     1.77111
        1812        1812      323.82         327     1.76842
        1818        1818     324.875         328     1.76583
        1824        1824     325.901         329     1.76298
        1830        1830     326.945         330     1.75865
        1836        1836     327.979         331     1.75856
        1842        1842      329.01         332     1.75237
        1848        1848     330.054         333     1.74881
        1854        1854     331.079         334     1.75015
        1860        1860       332.1         335     1.74728
        1866        1866     333.134         336     1.74442
        1872        1872     334.162         337     1.74136
        1878        1878     335.178         338     1.73817
        1884        1884     336.199         339     1.73507
        1890        1890     337.225         340     1.73295
        1896        1896     338.241         341     1.73099
        1902        1902     339.262         342     1.72854
        1908        1908     340.286         343     1.72454
        1914        1914       341.3         344     1.72199
        1920        1920     342.323         345     1.71851
        1926        1926     343.329         346     1.71613
        1932        1932     344.338         347     1.71385
        1938        1938     345.361         348     1.71098
        1944        1944      346.38         349     1.70848
        1950        1950     347.388         350     1.70674
        1956        1956     348.408         351     1.70414
        1962        1962     349.425         352     1.70045
        1968        1968     350.437         353     1.69893
        1974        1974     351.449         354     1.69007
        1980        1980      352.46         355     1.68746
        1986        1986     353.465         356     1.68632
        1992        1992     354.486         357     1.68436
        1998        1998      355.49         358     1.68172
        2004        2004     356.502         359     1.67954
        2010        2010     357.494         360     1.67829
        2016        2016     358.512         361     1.67599
        2022        2022     359.528         362     1.67877
        2028        2028     360.543         363     1.67796
        2034        2034     361.552         364     1.67484
        2040        2040     362.552         365     1.67266
        2046        2046     363.556         366     1.67141
        2052        2052     364.568         367     1.67025
        2058        2058     365.576         368     1.66902
        2064        2064     366.587         369     1.66625
        2070        2070     367.592         370     1.66528
        2076        2076     368.601         371     1.66403
        2082        2082       369.6         372     1.66298
        2088        2088     370.605         373     1.66184
        2094        2094     371.619         374     1.66194
        2100        2100     372.621         375     1.65687
        2106        2106     373.627         376     1.65534
        2112        2112     374.642         377     1.65833
        2118        2118     375.646         378     1.65591
        2124        2124     376.651         379     1.65458
        2130        2130     377.662         380     1.65266
        2136        2136     378.659         381     1.65164
        2142        2142     379.661         382     1.65152
        2148        2148     380.683         383     1.64986
        2154        2154     381.691         384      1.6483
        2160        2160     382.686         385     1.64808
        2166        2166     383.696         386     1.64428
        2172        2172     384.702         387     1.63996
        2178        2178      385.71         388     1.63776
        2184        2184     386.709         389     1.63562
        2190        2190      387.73         390     1.63465
        2196        2196     388.737         391     1.63049
        2202        2202     389.736         392     1.62784
        2208        2208     390.756         393     1.62745
        2214        2214     391.759         394     1.62667
        2220        2220     392.766         395     1.62359
        2226        2226     393.778         396     1.62097
        2232        2232     394.787         397     1.61941
        2238        2238     395.796         398      1.6191
        2244        2244     396.799         399     1.61755
        2250        2250     397.807         400     1.61405
        2256        2256     398.815         401     1.61372
        2262        2262     399.824         402     1.61164
        2268        2268      400.82         403      1.6087
        2274        2274     401.832         404     1.60791
        2280        2280     402.847         405     1.60689
        2286        2286     403.839         406      1.6045
        2292        2292     404.849         407      1.6018
        2298        2298     405.869         408     1.60003
        2304        2304     406.867         409     1.59915
        2310        2310     407.873         410     1.59721
        2316        2316     408.879         411     1.59609
        2322        2322     409.883         412     1.59379
        2328        2328     410.893         413      1.5931
        2334        2334     411.901         414      1.5909
        2340        2340     412.901         415     1.58729
        2346        2346     413.911         416     1.58674
        2352        2352      414.91         417     1.58615
        2358        2358      415.92         418     1.58424
        2364        2364     416.915         419     1.58284
        2370        2370     417.926         420     1.58271
        2376        2376     418.919         421     1.58118
        2382        2382     419.927         422     1.57943
        2388        2388     420.929         423     1.57918
        2394        2394      421.94         424     1.58156
        2400        2400     422.933         425     1.58221
        2406        2406     423.928         426     1.58254
        2412        2412     424.944         427     1.58194
        2418        2418     425.935         428     1.58118
        2424        2424     426.934         429     1.57956
        2430        2430      427.92         430     1.57927
        2436        2436     428.933         431     1.57927
        2442        2442     429.927         432     1.57958
        2448        2448     430.936         433     1.57621
        2454        2454     431.931         434     1.57584
        2460        2460     432.944         435      1.5759
        2466        2466      433.95         436     1.57583
        2472        2472     434.942         437     1.57583
        2478        2478     435.949         438     1.57583
        2484        2484     436.948         439     1.57583
        2490        2490     437.957         440     1.57583
        2496        2496     438.957         441     1.57583
        2502        2502     439.948         442     1.57583
        2508        2508      440.96         443     1.57583
        2514        2514     441.958         444     1.57583
        2520        2520     442.954         445     1.57583
        2526        2526     443.961         446     1.57623
        2532        2532     444.966         447     1.57868
        2538        2538      445.97         448     1.57812
        2544        2544     446.966         449     1.57784
        2550        2550     447.969         450     1.57612
        2556        2556     448.973         451     1.57238
        2562        2562     449.972         452      1.5724
        2568        2568     450.966         453     1.57387
        2574        2574     451.968         454     1.57468
        2580        2580     452.972         455      1.5748
        2586        2586     453.973         456     1.57564
        2592        2592     454.966         457     1.57544
        2598        2598     455.965         458     1.57925
        2604        2604     456.965         459     1.57982
        2610        2610     457.969         460     1.57888
        2616        2616     458.975         461     1.57596
        2622        2622     459.973         462     1.57583
        2628        2628     460.976         463     1.57583
        2634        2634     461.986         464     1.57708
        2640        2640     462.983         465     1.57715
        2646        2646     463.988         466     1.57697
        2652        2652     464.981         467     1.57592
        2658        2658     465.982         468     1.57583
        2664        2664     466.994         469     1.57659
        2670        2670     467.991         470     1.57727
        2676        2676     468.992         471      1.5761
        2682        2682         470         472     1.57659
        2688        2688     470.998         473     1.57681
        2694        2694     472.012         474     1.57639
        2700        2700     473.005         475     1.57583
        2706        2706     474.001         476     1.57693
        2712        2712     475.005         477     1.57647
        2718        2718     476.007         478     1.57583
        2724        2724     477.008         479     1.57702
        2730        2730     478.014         480     1.57693
        2736        2736     479.016         481     1.57583
        2742        2742     480.013         482     1.57583
        2748        2748     481.019         483     1.57583
        2754        2754     482.018         484     1.57583
        2760        2760      483.02         485     1.57395
        2766        2766     484.016         486     1.57546
        2772        2772     485.015         487     1.57391
        2778        2778     486.021         488     1.57466
        2784        2784     487.019         489     1.57413
        2790        2790     488.021         490     1.57238
        2796        2796     489.027         491      1.5728
        2802        2802     490.026         492     1.57457
        2808        2808     491.024         493     1.57315
        2814        2814     492.017         494     1.57473
        2820        2820     493.017         495      1.5749
        2826        2826     494.014         496     1.57391
        2832        2832     495.012         497     1.57515
        2838        2838     496.009         498      1.5757
        2844        2844     497.013         499     1.57353
        2850        2850     498.008         500     1.57512
        2856        2856     499.013         501     1.57535
        2862        2862     500.008         502     1.57583
        2868        2868     501.003         503     1.57573
        2874        2874     502.005         504     1.57536
        2880        2880     502.995         505     1.57583
        2886        2886     503.994         506     1.57582
        2892        2892     504.989         507     1.57583
        2898        2898     505.986         508     1.57506
        2904        2904     506.987         509     1.57591
        2910        2910     507.973         510       1.576
        2916        2916     508.969         511     1.57812
        2922        2922      509.97         512     1.57916
        2928        2928     510.968         513     1.57791
        2934        2934      511.96         514     1.57774
        2940        2940     512.962         515     1.57901
        2946        2946     513.957         516     1.57926
        2952        2952     514.951         517     1.58041
        2958        2958     515.949         518     1.58072
        2964        2964     516.945         519     1.57992
        2970        2970      517.94         520     1.58003
        2976        2976     518.943         521     1.58161
        2982        2982     519.936         522     1.58259
        2988        2988     520.927         523     1.58271
        2994        2994     521.925         524     1.58271
        3000        3000     522.925         525     1.58311
        3006        3006     523.917         526       1.585
        3012        3012     524.912         527     1.58591
        3018        3018     525.907         528     1.58614
        3024        3024     526.894         529     1.58729
        3030        3030     527.894         530     1.58926
        3036        3036     528.886         531     1.58958
        3042        3042     529.889         532     1.58921
        3048        3048     530.873         533     1.58943
        3054        3054      531.87         534     1.58958
        3060        3060      532.85         535     1.58959
        3066        3066     533.847         536     1.59035
        3072        3072     534.841         537     1.59263
        3078        3078     535.834         538     1.59379
        3084        3084     536.827         539     1.59335
        3090        3090     537.831         540     1.59421
        3096        3096     538.823         541      1.5957
        3102        3102     539.811         542     1.59542
        3108        3108     540.811         543     1.59628
        3114        3114     541.797         544     1.59647
        3120        3120     542.796         545     1.59746
        3126        3126     543.782         546     1.59914
        3132        3132     544.773         547     1.59991
        3138        3138     545.763         548     1.59991
        3144        3144     546.761         549     1.59991
        3150        3150     547.755         550     1.60029
        3156        3156     548.744         551      1.6027
        3162        3162     549.735         552     1.60333
        3168        3168     550.725         553     1.60335
        3174        3174      551.72         554     1.60345
        3180        3180     552.702         555     1.60422
        3186        3186     553.693         556     1.60488
        3192        3192     554.686         557     1.60665
        3198        3198     555.674         558     1.60769
        3204        3204      556.67         559     1.60794
        3210        3210     557.659         560     1.60835
        3216        3216     558.649         561     1.60994
        3222        3222     559.635         562     1.61023
        3228        3228     560.626         563     1.61023
        3234        3234     561.623         564     1.61064
        3240        3240     562.603         565     1.61291
        3246        3246     563.595         566      1.6136
        3252        3252     564.584         567     1.61367
        3258        3258     565.575         568     1.61482
        3264        3264     566.557         569      1.6163
        3270        3270     567.553         570     1.61701
        3276        3276     568.555         571     1.61711
        3282        3282     569.533         572     1.61711
        3288        3288     570.519         573     1.61788
        3294        3294     571.507         574     1.61902
        3300        3300     572.498         575     1.62003
        3306        3306     573.485         576     1.62053
        3312        3312     574.479         577     1.62132
        3318        3318     575.464         578     1.62198
        3324        3324     576.454         579     1.62324
        3330        3330     577.429         580     1.62399
        3336        3336     578.424         581     1.62399
        3342        3342     579.407         582     1.62525
        3348        3348     580.396         583     1.62591
        3354        3354     581.392         584     1.62731
        3360        3360     582.375         585     1.62743
        3366        3366      583.35         586     1.62782
        3372        3372     584.346         587     1.63023
        3378        3378     585.332         588     1.63085
        3384        3384      586.32         589     1.63088
        3390        3390     587.308         590     1.63302
        3396        3396     588.291         591     1.63419
        3402        3402     589.282         592     1.63432
        3408        3408     590.265         593     1.63432
        3414        3414     591.249         594     1.63432
        3420        3420     592.232         595     1.63623
        3426        3426     593.219         596     1.63762
        3432        3432     594.206         597     1.63775
        3438        3438     595.203         598     1.63852
        3444        3444     596.181         599     1.63884
        3450        3450     597.178         600     1.63955
        3456        3456     598.156         601     1.64082
        3462        3462     599.138         602     1.64116
        3468        3468     600.123         603     1.64129
        3474        3474     601.101         604     1.64349
        3480        3480     602.091         605     1.64453
        3486        3486     603.073         606     1.64464
        3492        3492     604.051         607      1.6454
        3498        3498     605.034         608     1.64759
        3504        3504      606.02         609     1.64806
        3510        3510     607.003         610     1.64808
        3516        3516     607.987         611     1.64928
        3522        3522     608.978         612     1.64928
        3528        3528     609.963         613     1.65037
        3534        3534     610.947         614     1.65142
        3540        3540     611.921         615     1.65152
        3546        3546     612.903         616     1.65152
        3552        3552     613.889         617     1.65219
        3558        3558     614.867         618     1.65365
        3564        3564     615.847         619     1.65496
        3570        3570     616.832         620     1.65633
        3576        3576     617.816         621     1.65524
        3582        3582     618.801         622     1.65496
        3588        3588     619.786         623     1.65662
        3594        3594     620.766         624     1.65818
        3600        3600     621.749         625      1.6584
        3606        3606      622.72         626     1.66025
        3612        3612     623.708         627     1.66118
        3618        3618     624.684         628     1.66108
        3624        3624     625.673         629     1.66165
        3630        3630     626.641         630     1.66183
        3636        3636     627.631         631     1.66184
        3642        3642      628.61         632     1.66261
        3648        3648     629.589         633     1.66488
        3654        3654      630.57         634     1.66528
        3660        3660     631.548         635     1.66538
        3666        3666     632.524         636     1.66777
        3672        3672     633.505         637     1.66681
        3678        3678     634.487         638     1.66695
        3684        3684     635.469         639     1.66805
        3690        3690     636.445         640     1.66872
        3696        3696     637.429         641      1.6697
        3702        3702     638.409         642     1.67049
        3708        3708     639.385         643     1.67216
        3714        3714     640.371         644     1.67216
        3720        3720     641.346         645     1.67216
        3726        3726     642.318         646     1.67216
        3732        3732     643.297         647     1.67216
        3738        3738      644.28         648     1.67302
        3744        3744     645.253         649     1.67484
        3750        3750     646.232         650     1.67553
        3756        3756     647.201         651     1.67718
        3762        3762     648.183         652     1.67866
        3768        3768      649.16         653      1.6775
        3774        3774     650.141         654     1.67705
        3780        3780     651.119         655     1.67904
        3786        3786     652.096         656      1.6798
        3792        3792     653.076         657     1.68111
        3798        3798     654.047         658     1.68172
        3804        3804     655.027         659     1.68193
        3810        3810         656         660     1.68239
        3816        3816     656.974         661     1.68249
        3822        3822     657.951         662     1.68374
        3828        3828     658.933         663     1.68562
        3834        3834     659.903         664     1.68593
        3840        3840     660.878         665     1.68593
        3846        3846     661.855         666     1.68593
        3852        3852     662.829         667     1.68593
        3858        3858     663.808         668     1.68758
        3864        3864     664.784         669     1.68915
        3870        3870     665.757         670     1.68937
        3876        3876     666.729         671     1.68968
        3882        3882     667.709         672      1.6906
        3888        3888     668.673         673     1.69243
        3894        3894     669.659         674     1.69277
        3900        3900     670.638         675     1.69207
        3906        3906      671.62         676     1.69204
        3912        3912     672.587         677     1.69315
        3918        3918     673.556         678     1.69414
        3924        3924     674.537         679     1.69548
        3930        3930     675.508         680     1.69618
        3936        3936     676.483         681     1.69544
        3942        3942     677.458         682     1.69701
        3948        3948     678.426         683     1.69767
        3954        3954     679.409         684     1.69655
        3960        3960     680.384         685      1.6974
        3966        3966     681.349         686     1.69815
        3972        3972     682.328         687     1.69948
        3978        3978     683.296         688     1.70084
        3984        3984     684.278         689     1.70064
        3990        3990     685.248         690     1.70147
        3996        3996     686.231         691     1.70275
        4002        4002     687.196         692     1.70309
        4008        4008     688.178         693     1.70313
        4014        4014     689.142         694     1.70313
        4020        4020     690.111         695     1.70313
        4026        4026     691.084         696     1.70418
        4032        4032     692.059         697     1.70428
        4038        4038     693.026         698     1.70586
        4044        4044     694.001         699     1.70654
        4050        4050     694.971         700     1.70657
        4056        4056     695.945         701     1.70657
        4062        4062     696.907         702     1.70657
        4068        4068     697.886         703     1.70772
        4074        4074     698.853         704     1.70968
        4080        4080     699.825         705        1.71
        4086        4086     700.802         706     1.71001
        4092        4092      701.76         707     1.71001
        4098        4098     702.737         708     1.71075
        4104        4104     703.705         709     1.71078
        4110        4110     704.678         710     1.71271
        4116        4116     705.656         711     1.71299
        4122        4122     706.619         712     1.71307
        4128        4128     707.593         713     1.71342
        4134        4134     708.558         714     1.71345
        4140        4140     709.529         715     1.71345
        4146        4146     710.501         716      1.7156
        4152        4152     711.471         717     1.71677
        4158        4158     712.449         718     1.71689
        4164        4164     713.418         719     1.71689
        4170        4170     714.388         720     1.71699
        4176        4176     715.357         721     1.71919
        4182        4182     716.325         722     1.71974
        4188        4188     717.296         723     1.72024
        4194        4194     718.264         724     1.72033
        4200        4200     719.229         725     1.72033
        4206        4206     720.195         726     1.72043
        4212        4212     721.159         727     1.72224
        4218        4218     722.134         728     1.72302
        4224        4224     723.095         729     1.72367
        4230        4230     724.071         730     1.72492
        4236        4236     725.027         731     1.72425
        4242        4242     725.999         732     1.72494
        4248        4248     726.962         733     1.72721
        4254        4254     727.931         734      1.7272
        4260        4260     728.895         735     1.72721
        4266        4266     729.863         736      1.7276
        4272        4272     730.832         737     1.73001
        4278        4278     731.802         738     1.73022
        4284        4284     732.771         739     1.72989
        4290        4290     733.743         740       1.731
        4296        4296     734.713         741     1.73158
        4302        4302     735.679         742      1.7318
        4308        4308      736.65         743     1.73114
        4314        4314     737.608         744     1.73185
        4320        4320     738.582         745     1.73218
        4326        4326     739.555         746     1.73324
        4332        4332     740.519         747     1.73399
        4338        4338     741.487         748      1.7341
        4344        4344     742.456         749      1.7341
        4350        4350     743.423         750      1.7341
        4356        4356      744.39         751      1.7341
        4362        4362     745.354         752     1.73486
        4368        4368     746.323         753     1.73673
        4374        4374     747.288         754     1.73524
        4380        4380     748.254         755     1.73696
        4386        4386     749.212         756     1.73751
        4392        4392     750.188         757      1.7383
        4398        4398     751.143         758     1.73785
        4404        4404     752.111         759     1.73913
        4410        4410     753.076         760     1.74021
        4416        4416      754.04         761     1.73968
        4422        4422     755.007         762     1.74078
        4428        4428     755.967         763     1.74098
        4434        4434     756.937         764     1.74098
        4440        4440       757.9         765     1.74098
        4446        4446     758.872         766     1.74136
        4452        4452      759.83         767     1.74377
        4458        4458       760.8         768     1.74439
        4464        4464     761.765         769     1.74365
        4470        4470     762.737         770      1.7442
        4476        4476      763.69         771     1.74575
        4482        4482     764.653         772     1.74442
        4488        4488     765.618         773     1.74442
        4494        4494     766.587         774      1.7454
        4500        4500     767.544         775     1.74671
        4506        4506     768.509         776     1.74686
        4512        4512     769.481         777     1.74767
        4518        4518     770.448         778     1.74901
        4524        4524     771.407         779     1.75056
        4530        4530     772.376         780      1.7491
        4536        4536     773.344         781     1.75092
        4542        4542     774.303         782     1.75126
        4548        4548     775.275         783      1.7513
        4554        4554     776.225         784     1.75168
        4560        4560     777.193         785     1.75146
        4566        4566     778.159         786     1.75131
        4572        4572     779.122         787      1.7513
        4578        4578      780.09         788      1.7525
        4584        4584     781.049         789     1.75443
        4590        4590     782.011         790      1.7555
        4596        4596     782.983         791     1.75506
        4602        4602     783.943         792     1.75475
        4608        4608     784.905         793      1.7555
        4614        4614     785.865         794     1.75693
        4620        4620     786.825         795     1.75627
        4626        4626     787.788         796     1.75818
        4632        4632     788.755         797     1.75817
        4638        4638     789.723         798     1.75818
        4644        4644     790.689         799     1.75818
        4650        4650     791.646         800     1.75818
        4656        4656     792.613         801     1.75944
        4662        4662     793.572         802     1.76009
        4668        4668     794.525         803     1.75962
        4674        4674       795.5         804     1.76125
        4680        4680     796.456         805     1.76162
        4686        4686     797.412         806     1.76162
        4692        4692     798.383         807      1.7631
        4698        4698     799.342         808     1.76391
        4704        4704     800.299         809     1.76483
        4710        4710     801.262         810     1.76505
        4716        4716     802.214         811     1.76506
        4722        4722     803.181         812     1.76506
        4728        4728     804.146         813     1.76506
        4734        4734     805.114         814     1.76506
        4740        4740     806.071         815     1.76654
        4746        4746     807.018         816     1.76783
        4752        4752     807.987         817     1.76888
        4758        4758     808.947         818     1.76915
        4764        4764     809.908         819      1.7686
        4770        4770      810.86         820      1.7685
        4776        4776     811.823         821     1.76979
        4782        4782     812.782         822     1.76992
        4788        4788     813.741         823     1.77156
        4794        4794     814.704         824      1.7719
        4800        4800     815.673         825     1.77194
        4806        4806     816.622         826     1.77194
        4812        4812     817.587         827     1.77194
        4818        4818     818.552         828     1.77204
        4824        4824     819.507         829     1.77347
        4830        4830     820.469         830     1.77447
        4836        4836     821.434         831     1.77527
        4842        4842     822.398         832     1.77538
        4848        4848     823.357         833     1.77538
        4854        4854     824.316         834     1.77538
        4860        4860     825.278         835     1.77538
        4866        4866     826.231         836     1.77617
        4872        4872     827.192         837     1.77661
        4878        4878     828.149         838     1.77653
        4884        4884     829.113         839     1.77762
        4890        4890     830.075         840      1.7787
        4896        4896     831.031         841     1.77882
        4902        4902     831.996         842     1.77788
        4908        4908     832.966         843     1.77864
        4914        4914     833.921         844     1.77882
        4920        4920     834.879         845     1.77882
        4926        4926      835.83         846     1.77882
        4932        4932     836.798         847     1.77882
        4938        4938     837.756         848     1.77882
        4944        4944     838.717         849     1.77882
        4950        4950     839.666         850     1.77882
        4956        4956     840.627         851     1.78048
        4962        4962     841.576         852     1.78205
        4968        4968     842.535         853     1.78227
        4974        4974     843.499         854     1.78226
        4980        4980     844.463         855     1.78227
        4986        4986     845.416         856     1.78227
        4992        4992     846.379         857     1.78227
        4998        4998     847.337         858     1.78217
        5004        5004     848.297         859     1.78074
        5010        5010     849.252         860     1.78264
        5016        5016     850.208         861     1.78367
        5022        5022     851.167         862     1.78494
        5028        5028      852.13         863     1.78466
        5034        5034     853.078         864     1.78552
        5040        5040     854.027         865     1.78571
        5046        5046      854.99         866     1.78571
        5052        5052     855.948         867     1.78571
        5058        5058     856.909         868     1.78571
        5064        5064     857.861         869     1.78665
        5070        5070     858.823         870     1.78599
        5076        5076     859.774         871     1.78723
        5082        5082     860.729         872     1.78777
        5088        5088     861.692         873     1.78895
        5094        5094      862.64         874     1.78915
        5100        5100     863.595         875     1.78915
        5106        5106     864.551         876     1.78915
        5112        5112     865.512         877     1.78991
        5118        5118     866.462         878     1.78946
        5124        5124     867.414         879     1.78925
        5130        5130     868.375         880     1.79144
        5136        5136     869.339         881     1.79248
        5142        5142     870.285         882     1.79258
        5148        5148     871.248         883     1.79259
        5154        5154     872.194         884     1.79335
        5160        5160     873.154         885     1.79448
        5166        5166     874.115         886     1.79335
        5172        5172     875.068         887     1.79555
        5178        5178      876.02         888     1.79601
        5184        5184     876.978         889     1.79603
        5190        5190      877.93         890     1.79603
        5196        5196     878.879         891     1.79603
        5202        5202     879.837         892     1.79717
        5208        5208     880.787         893      1.7965
        5214        5214     881.745         894     1.79605
        5220        5220     882.692         895     1.79603
        5226        5226     883.646         896     1.79866
        5232        5232     884.598         897     1.79947
        5238        5238     885.552         898     1.79947
        5244        5244     886.504         899     1.80061
# Results:
# Texts:
#   !PHBH
#   PHBH. 29.0641 mg
# 
# Sample:
#   PHBH. 29.0641 mg
# Sample Remarks:
#   
# Method:
#   25-900_10°C/min_air50ml/min_luca


